; magnetite optical data
; https://refractiveindex.info/?shelf=main&book=Fe3O4&page=Querry
; luxpop format
; wl(A)    n    k
  2100    2.256    0.085
  2200    2.305    0.109
  2300    2.337    0.118
  2400    2.364    0.120
  2500    2.387    0.114
  2600    2.400    0.102
  2700    2.404    0.092
  2800    2.401    0.085
  2900    2.397    0.088
  3000    2.398    0.091
  3100    2.398    0.096
  3200    2.403    0.103
  3300    2.409    0.105
  3400    2.415    0.108
  3500    2.422    0.111
  3600    2.434    0.112
  3700    2.447    0.108
  3800    2.459    0.096
  3900    2.464    0.080
  4000    2.462    0.062
  4100    2.453    0.047
  4200    2.440    0.034
  4300    2.423    0.026
  4400    2.404    0.026
  4500    2.386    0.032
  4600    2.374    0.042
  4700    2.367    0.054
  4800    2.365    0.063
  4900    2.364    0.067
  5000    2.359    0.071
  5100    2.354    0.077
  5200    2.349    0.083
  5300    2.346    0.091
  5400    2.344    0.099
  5500    2.343    0.105
  5600    2.342    0.112
  5700    2.342    0.118
  5800    2.342    0.125
  5900    2.344    0.131
  6000    2.346    0.136
  6100    2.350    0.141
  6200    2.353    0.144
  6300    2.358    0.148
  6400    2.366    0.145
  6500    2.366    0.138
  6600    2.363    0.137
  6700    2.364    0.135
  6800    2.362    0.131
  6900    2.359    0.127
  7000    2.355    0.124
  7100    2.349    0.122
  7200    2.343    0.120
  7300    2.336    0.119
  7400    2.329    0.118
  7500    2.320    0.118
  7600    2.312    0.119
  7700    2.303    0.120
  7800    2.294    0.123
  7900    2.284    0.128
  8000    2.279    0.134
  8100    2.272    0.134
  8200    2.262    0.138
  8300    2.253    0.143
  8400    2.245    0.149
  8500    2.236    0.155
  8600    2.229    0.161
  8700    2.222    0.167
  8800    2.213    0.173
  8900    2.205    0.181
  9000    2.196    0.189
  9100    2.189    0.198
  9200    2.182    0.207
  9300    2.175    0.215
  9400    2.168    0.223
  9500    2.159    0.234
  9600    2.153    0.244
  9700    2.146    0.255
  9800    2.139    0.267
  9900    2.134    0.280
 10000    2.130    0.292
 10100    2.125    0.305
 10200    2.122    0.317
 10300    2.119    0.329
 10400    2.116    0.341
 10500    2.114    0.353
 10600    2.112    0.365
 10700    2.110    0.377
 10800    2.108    0.389
 10900    2.107    0.401
 11000    2.106    0.413
 11100    2.104    0.424
 11200    2.103    0.437
 11300    2.102    0.450
 11400    2.102    0.462
 11500    2.102    0.475
 11600    2.102    0.487
 11700    2.103    0.500
 11800    2.104    0.512
 11900    2.103    0.525
 12000    2.106    0.542
 12100    2.114    0.554
 12200    2.117    0.564
 12300    2.120    0.574
 12400    2.123    0.584
 12500    2.126    0.595
 12600    2.129    0.605
 12700    2.132    0.616
 12800    2.135    0.626
 12900    2.139    0.637
 13000    2.143    0.647
 13100    2.146    0.657
 13200    2.149    0.667
 13300    2.153    0.678
 13400    2.158    0.688
 13500    2.162    0.698
 13600    2.166    0.708
 13700    2.171    0.718
 13800    2.176    0.728
 13900    2.181    0.737
 14000    2.186    0.747
 14100    2.192    0.757
 14200    2.198    0.765
 14300    2.203    0.774
 14400    2.209    0.783
 14500    2.215    0.791
 14600    2.221    0.800
 14700    2.227    0.808
 14800    2.233    0.816
 14900    2.240    0.824
 15000    2.246    0.831
 15100    2.252    0.839
 15200    2.259    0.846
 15300    2.265    0.852
 15400    2.270    0.860
 15500    2.278    0.867
 15600    2.284    0.872
 15700    2.290    0.879
 15800    2.295    0.885
 15900    2.301    0.892
 16000    2.308    0.898
 16100    2.314    0.904
 16200    2.319    0.910
 16300    2.325    0.917
 16400    2.331    0.923
 16500    2.337    0.929
 16600    2.343    0.935
 16700    2.350    0.942
 16800    2.357    0.947
 16900    2.364    0.953
 17000    2.371    0.959
 17100    2.378    0.964
 17200    2.385    0.969
 17300    2.391    0.974
 17400    2.398    0.979
 17500    2.405    0.983
 17600    2.412    0.987
 17700    2.419    0.991
 17800    2.425    0.996
 17900    2.432    1.000
 18000    2.441    1.003
 18100    2.446    1.004
 18200    2.451    1.008
 18300    2.457    1.012
 18400    2.464    1.015
 18500    2.471    1.017
 18600    2.474    1.017
 18700    2.475    1.021
 18800    2.480    1.028
 18900    2.487    1.033
 19000    2.492    1.037
 19100    2.498    1.041
 19200    2.504    1.044
 19300    2.510    1.048
 19400    2.515    1.052
 19500    2.521    1.056
 19600    2.527    1.058
 19700    2.532    1.061
 19800    2.536    1.065
 19900    2.539    1.069
 20000    2.545    1.080
 20100    2.558    1.084
 20200    2.566    1.085
 20300    2.573    1.086
 20400    2.580    1.088
 20500    2.586    1.089
 20600    2.592    1.090
 20700    2.597    1.092
 20800    2.603    1.094
 20900    2.608    1.095
 21000    2.613    1.097
 21100    2.619    1.099
 21200    2.624    1.100
 21300    2.629    1.102
 21400    2.633    1.104
 21500    2.638    1.106
 21600    2.643    1.109
 21700    2.648    1.110
 21800    2.653    1.112
 21900    2.657    1.114
 22000    2.662    1.116
 22100    2.666    1.118
 22200    2.671    1.121
 22300    2.675    1.124
 22400    2.680    1.127
 22500    2.685    1.131
 22600    2.693    1.134
 22700    2.699    1.136
 22800    2.706    1.137
 22900    2.713    1.137
 23000    2.718    1.137
 23100    2.722    1.137
 23200    2.726    1.138
 23300    2.730    1.140
 23400    2.735    1.142
 23500    2.741    1.144
 23600    2.747    1.144
 23700    2.751    1.144
 23800    2.754    1.145
 23900    2.758    1.146
 24000    2.763    1.147
 24100    2.767    1.149
 24200    2.771    1.151
 24300    2.776    1.152
 24400    2.780    1.154
 24500    2.785    1.156
 24600    2.791    1.157
 24700    2.797    1.157
 24800    2.801    1.157
 24900    2.805    1.158
 25000    2.811    1.158
 25063    2.813    1.156
 25126    2.812    1.158
 25189    2.816    1.160
 25253    2.818    1.158
 25316    2.821    1.161
 25381    2.826    1.161
 25445    2.825    1.161
 25510    2.831    1.161
 25575    2.833    1.160
 25641    2.834    1.161
 25707    2.837    1.162
 25773    2.837    1.160
 25840    2.839    1.166
 25907    2.844    1.163
 25974    2.843    1.166
 26042    2.851    1.168
 26110    2.852    1.165
 26178    2.852    1.169
 26247    2.857    1.167
 26316    2.857    1.168
 26385    2.863    1.168
 26455    2.864    1.169
 26525    2.867    1.171
 26596    2.869    1.170
 26667    2.870    1.173
 26738    2.874    1.174
 26810    2.879    1.176
 26882    2.883    1.174
 26954    2.885    1.175
 27027    2.888    1.176
 27100    2.894    1.176
 27174    2.894    1.173
 27248    2.895    1.176
 27322    2.898    1.175
 27397    2.900    1.176
 27473    2.906    1.176
 27548    2.905    1.175
 27624    2.909    1.180
 27701    2.913    1.176
 27778    2.913    1.176
 27855    2.917    1.179
 27933    2.921    1.179
 28011    2.923    1.177
 28090    2.922    1.178
 28169    2.924    1.183
 28249    2.930    1.185
 28329    2.933    1.194
 28409    2.936    1.185
 28490    2.941    1.184
 28571    2.943    1.183
 28653    2.945    1.185
 28736    2.947    1.185
 28918    2.952    1.187
 28902    2.955    1.187
 28986    2.961    1.186
 29070    2.960    1.182
 29155    2.960    1.185
 29240    2.965    1.186
 29326    2.967    1.186
 29412    2.971    1.187
 29499    2.971    1.185
 29586    2.973    1.180
 29674    2.979    1.189
 29762    2.982    1.190
 29851    2.986    1.189
 29940    2.988    1.190
 30030    2.993    1.188
 30120    2.992    1.187
 30211    2.993    1.190
 30303    2.998    1.193
 30395    3.003    1.191
 30488    3.004    1.190
 30581    3.007    1.190
 30675    3.007    1.191
 30769    3.013    1.195
 30864    3.016    1.192
 30960    3.018    1.193
 31056    3.021    1.193
 31153    3.024    1.191
 31250    3.025    1.193
 31348    3.029    1.194
 31447    3.033    1.195
 31546    3.037    1.194
 31646    3.039    1.191
 31746    3.037    1.192
 31847    3.040    1.196
 31949    3.044    1.197
 32051    3.046    1.197
 32154    3.050    1.199
 32258    3.055    1.198
 32362    3.060    1.198
 32468    3.062    1.194
 32573    3.063    1.195
 32680    3.065    1.196
 32787    3.066    1.195
 32895    3.067    1.199
 33003    3.075    1.199
 33113    3.074    1.200
 33223    3.080    1.203
 33333    3.085    1.199
 33445    3.084    1.198
 33557    3.090    1.202
 33670    3.093    1.198
 33784    3.094    1.201
 33898    3.097    1.201
 34014    3.101    1.201
 34130    3.101    1.201
 34247    3.107    1.205
 34364    3.113    1.199
 34483    3.112    1.197
 34602    3.114    1.200
 34722    3.117    1.200
 34843    3.118    1.201
 34965    3.123    1.202
 35088    3.125    1.202
 35211    3.127    1.201
 35336    3.129    1.201
 35461    3.132    1.202
 35587    3.135    1.201
 35714    3.137    1.200
 35842    3.137    1.202
 35971    3.139    1.206
 36101    3.148    1.208
 36232    3.152    1.203
 36364    3.151    1.203
 36496    3.153    1.204
 36630    3.153    1.205
 36765    3.159    1.209
 36900    3.161    1.206
 37037    3.163    1.210
 37175    3.168    1.210
 37313    3.171    1.210
 37453    3.173    1.207
 37594    3.175    1.212
 37736    3.180    1.213
 37879    3.182    1.213
 38023    3.188    1.215
 38168    3.193    1.211
 38314    3.193    1.209
 38462    3.194    1.211
 38610    3.196    1.213
 38760    3.200    1.219
 38911    3.207    1.215
 39063    3.208    1.212
 39216    3.211    1.212
 39370    3.213    1.212
 39526    3.216    1.216
 39683    3.219    1.215
 39841    3.220    1.214
 40000    3.221    1.215
 40161    3.226    1.219
 40323    3.232    1.219
 40486    3.233    1.219
 40650    3.238    1.220
 40816    3.239    1.219
 40984    3.245    1.221
 41152    3.247    1.218
 41322    3.249    1.221
 41494    3.253    1.220
 41667    3.255    1.219
 41841    3.256    1.219
 42373    3.269    1.223
 42017    3.260    1.224
 42194    3.268    1.225
 42553    3.273    1.226
 42735    3.279    1.222
 42918    3.280    1.223
 43103    3.285    1.222
 43290    3.285    1.221
 43478    3.287    1.224
 43668    3.292    1.223
 43860    3.293    1.220
 44053    3.295    1.224
 44248    3.299    1.223
 44444    3.300    1.225
 44643    3.306    1.227
 44843    3.308    1.224
 45045    3.308    1.225
 45249    3.314    1.228
 45455    3.317    1.227
 45662    3.318    1.229
 45872    3.324    1.231
 46083    3.330    1.229
 46296    3.330    1.228
 46512    3.333    1.230
 46729    3.337    1.229
 46948    3.338    1.231
 47170    3.344    1.232
 47393    3.345    1.230
 47619    3.346    1.233
 47847    3.351    1.236
 48077    3.357    1.236
 48309    3.360    1.236
 48544    3.366    1.235
 48780    3.369    1.235
 49020    3.373    1.234
 49261    3.375    1.231
 49505    3.377    1.232
 49751    3.382    1.234
 50000    3.388    1.231
 50251    3.386    1.226
 50505    3.386    1.227
 50761    3.387    1.228
 51020    3.388    1.232
 51282    3.393    1.234
 51546    3.395    1.234
 51813    3.397    1.234
 52083    3.401    1.236
 52356    3.404    1.237
 52632    3.409    1.238
 52910    3.410    1.236
 53191    3.411    1.239
 53476    3.415    1.240
 53763    3.420    1.240
 54054    3.419    1.239
 54348    3.422    1.243
 54645    3.426    1.244
 54945    3.430    1.244
 55249    3.432    1.245
 55556    3.435    1.246
 55866    3.440    1.247
 56180    3.441    1.247
 56497    3.443    1.250
 56818    3.447    1.251
 57143    3.452    1.253
 57471    3.456    1.254
 57803    3.459    1.252
 58140    3.459    1.253
 58480    3.463    1.255
 58824    3.466    1.259
 59172    3.471    1.256
 59524    3.471    1.258
 59880    3.476    1.260
 60241    3.479    1.257
 60606    3.479    1.261
 60976    3.483    1.261
 61350    3.487    1.263
 61728    3.488    1.263
 62112    3.491    1.267
 62500    3.496    1.270
 62893    3.500    1.269
 63291    3.503    1.270
 63694    3.506    1.268
 64103    3.505    1.270
 64516    3.507    1.273
 64935    3.512    1.278
 65359    3.520    1.276
 65789    3.518    1.277
 66225    3.524    1.279
 66667    3.524    1.279
 67114    3.528    1.282
 67568    3.530    1.280
 68027    3.532    1.282
 68493    3.532    1.284
 68966    3.536    1.290
 69444    3.541    1.289
 69930    3.543    1.290
 70423    3.544    1.291
 70922    3.548    1.293
 71429    3.549    1.294
 71942    3.550    1.298
 72464    3.552    1.301
 72993    3.558    1.304
 73529    3.559    1.303
 74074    3.563    1.305
 74627    3.563    1.307
 75188    3.567    1.307
 75758    3.565    1.309
 76336    3.567    1.312
 76923    3.568    1.315
 77519    3.569    1.319
 78125    3.572    1.324
 78740    3.574    1.324
 79365    3.574    1.327
 80000    3.574    1.331
 80645    3.577    1.338
 81301    3.582    1.338
 81967    3.580    1.340
 82645    3.579    1.346
 83333    3.583    1.352
 84034    3.585    1.354
 84746    3.585    1.356
 85470    3.582    1.363
 86207    3.583    1.370
 86957    3.587    1.374
 87719    3.590    1.378
 88496    3.587    1.381
 89286    3.588    1.392
 90090    3.590    1.397
 90909    3.594    1.403
 91743    3.592    1.405
 92593    3.589    1.415
 93458    3.592    1.424
 94340    3.593    1.431
 95238    3.592    1.442
 96154    3.601    1.451
 97087    3.603    1.453
 98039    3.603    1.460
 99010    3.601    1.464
100000    3.601    1.479
101010    3.606    1.485
102041    3.606    1.493
103093    3.607    1.502
104167    3.609    1.510
105263    3.609    1.518
106383    3.612    1.525
107527    3.609    1.532
108696    3.606    1.542
109890    3.604    1.554
111111    3.605    1.563
112360    3.599    1.573
113636    3.598    1.586
114943    3.595    1.595
116279    3.587    1.609
117647    3.582    1.627
119048    3.577    1.641
120482    3.571    1.660
121951    3.569    1.677
123457    3.561    1.693
125000    3.554    1.715
126582    3.546    1.735
128205    3.533    1.760
129870    3.522    1.787
131579    3.509    1.821
133333    3.499    1.859
135135    3.491    1.903
136986    3.489    1.947
138889    3.491    1.991
140845    3.493    2.033
142857    3.492    2.077
144928    3.492    2.129
147059    3.497    2.176
149254    3.494    2.228
151515    3.492    2.284
153846    3.484    2.348
156250    3.468    2.427
158730    3.470    2.530
161290    3.474    2.626
163934    3.454    2.761
166667    3.455    2.963
169492    3.514    3.249
172414    3.755    3.642
175439    4.372    3.907
178571    5.091    3.604
181818    5.314    2.966
185185    5.131    2.540
188679    4.902    2.383
192308    4.731    2.348
196078    4.613    2.365
200000    4.524    2.402
204082    4.456    2.460
208333    4.413    2.535
212766    4.391    2.614
217391    4.380    2.694
222222    4.373    2.776
227273    4.371    2.867
232558    4.372    2.959
238095    4.362    3.078
243902    4.361    3.224
250000    4.365    3.413
256410    4.409    3.655
263158    4.484    3.958
270270    4.668    4.392
277778    5.167    4.940
285714    6.308    5.210
294118    7.376    4.290
303030    7.272    3.268
312500    6.871    2.855
322581    6.567    2.776
333333    6.418    2.807
344828    6.342    2.858
357143    6.329    2.950
370370    6.381    3.017
384615    6.416    3.058
400000    6.485    3.185
416667    6.677    3.226
434783    6.738    3.253
454545    6.933    3.357
476190    7.124    3.331
500000    7.341    3.400
526316    7.679    3.351
555556    7.943    3.209
